#Rx
# X(m), Y(m), Z(m), Distance(m), Power (dBm) Phase (deg)
1 111.98 -186.867 115.981 0 -105.884 18.4331
2 108.98 -182.867 116.003 5 -104.141 38.0047
3 105.98 -178.867 116.025 10 -108.883 -69.5421
4 102.98 -174.867 116.047 15 -107.683 153.699
5 99.9802 -170.867 116.069 20 -114.286 -18.8731
6 96.9802 -166.867 116.09 25 -111.838 138.007
7 93.9802 -162.867 116.112 30 -111.131 -81.6732
8 90.9802 -158.867 116.134 35 -110.878 36.295
9 87.9802 -154.867 116.156 40 -112.661 142.511
10 84.9802 -150.867 116.178 45 -111.092 -160.209
11 81.9802 -146.867 116.2 50 -110.681 -96.7868
12 78.9802 -142.867 116.222 55 -110.664 -136.897
13 79.9607 -138.387 116.144 60 -105.566 178.599
14 81.9241 -133.789 116.133 65 -113.199 -163.307
15 83.8874 -129.19 116.142 70 -105.686 -104.821
16 85.8508 -124.592 116.151 75 -100.089 -169.087
17 87.8142 -119.993 116.161 80 -102.211 -45.1674
18 89.7775 -115.395 116.17 85 -100.905 163.374
19 91.7409 -110.797 116.18 90 -98.0545 -94.5402
20 93.7042 -106.198 116.189 95 -99.1878 -115.958
21 95.6676 -101.6 116.198 100 -101.621 2.28154
22 97.6309 -97.0015 116.208 105 -105.329 94.532
23 99.5943 -92.4031 116.217 110 -118.371 -134.476
24 101.558 -87.8047 116.226 115 -107.337 110.415
25 103.521 -83.2063 116.236 120 -114.675 -125.761
26 105.965 -78.9659 116.242 125 -99.7002 -142.085
27 109.807 -75.765 116.236 130 -106.007 113.663
28 113.648 -72.5641 116.231 135 -102.65 6.08213
29 117.489 -69.3632 116.226 140 -100.835 65.798
30 121.33 -66.1622 116.221 145 -102.931 151.727
31 125.171 -62.9613 116.216 150 -105.074 166.698
32 129.012 -59.7604 116.211 155 -105.054 -49.1171
33 132.853 -56.5595 116.206 160 -91.6121 78.3983
34 136.694 -53.3586 116.201 165 -112.22 -130.357
35 140.535 -50.1576 116.196 170 -102.068 101.603
36 144.376 -46.9567 116.191 175 -101.287 51.5265
37 148.218 -43.7558 116.186 180 -101.804 -7.84881
38 152.059 -40.5549 116.181 185 -96.5593 -141.436
39 155.9 -37.3539 116.175 190 -106.393 114.232
40 159.741 -34.153 116.17 195 -101.414 -78.1254
41 163.582 -30.9521 116.165 200 -101.469 55.7554
42 167.423 -27.7512 116.185 205 -101.3 154.546
43 171.264 -24.5503 116.232 210 -101.028 -155.087
44 175.105 -21.3493 116.279 215 -101.256 -165.902
45 178.946 -18.1484 116.325 220 -101.249 90.9886
46 178.725 -14.5724 116.399 225 -102.807 159.731
47 175.535 -10.7223 116.492 230 -103.242 59.5758
48 172.345 -6.87217 116.584 235 -101.639 -141.011
49 169.155 -3.02206 116.677 240 -94.9326 6.46686
50 165.964 0.828046 116.77 245 -98.9984 -1.39431
51 162.774 4.67815 116.863 250 -96.0191 -108.473
52 159.584 8.52826 116.955 255 -104.126 -3.99487
53 156.394 12.3784 117.048 260 -99.8625 50.8292
54 153.204 16.2285 117.141 265 -100.387 -35.9607
55 150.014 20.0786 117.234 270 -103.347 44.5969
56 146.824 23.9287 117.327 275 -104.362 165.559
57 143.634 27.7788 117.419 280 -104.278 85.5982
58 140.444 31.6289 117.512 285 -104.902 -43.4328
59 137.254 35.479 117.605 290 -104.621 -142.678
60 134.064 39.3291 117.698 295 -104.933 82.7675
61 130.873 43.1792 117.791 300 -105.504 -54.9053
62 127.683 47.0293 117.883 305 -108.857 169.558
63 124.493 50.8794 117.976 310 -104.969 4.44819
64 121.303 54.7296 118.069 315 -121.279 52.675
65 121.56 58.2657 118.139 320 -103.067 -27.5919
66 125.393 61.476 118.25 325 -103.773 149.487
67 129.227 64.6863 118.42 330 -99.9087 -99.1195
68 133.06 67.8967 118.591 335 -101.3 -43.8464
69 136.893 71.107 118.762 340 -107.869 28.7353
70 140.726 74.3173 118.933 345 -106.317 -167.946
71 144.56 77.5277 119.103 350 -103.759 102.993
72 148.393 80.738 119.274 355 -102.313 -119.74
73 152.226 83.9484 119.445 360 -112.966 77.0255
74 156.059 87.1587 119.616 365 -110.627 -57.4799
75 159.893 90.369 119.787 370 -118.24 -121.515
76 163.726 93.5794 119.957 375 -113.534 -37.5659
77 167.559 96.7897 120.128 380 -103.497 32.1954
78 171.392 100 120.299 385 -109.729 103.895
79 175.226 103.21 120.47 390 -108.433 130
