#Rx
# X(m), Y(m), Z(m), Distance(m), Power (dBm) Phase (deg)
1 111.98 -188.267 115.998 0 -102.179 -166.187
2 108.91 -184.321 116.022 5 -99.658 132.443
3 105.839 -180.375 116.046 10 -110.533 7.21263
4 102.768 -176.429 116.071 15 -99.778 -30.2054
5 99.6975 -172.483 116.095 20 -108.222 22.072
6 96.6269 -168.537 116.119 25 -107.766 -42.1891
7 93.5562 -164.591 116.143 30 -99.9302 -145.221
8 90.4855 -160.645 116.167 35 -98.5815 -170.481
9 87.4149 -156.699 116.191 40 -104.361 91.5083
10 84.3442 -152.753 116.216 45 -104.376 62.9841
11 81.2736 -148.807 116.24 50 -98.4177 96.9899
12 78.2029 -144.861 116.264 55 -106.274 136.945
13 75.1322 -140.915 116.288 60 -102.52 96.4692
14 72.0616 -136.969 116.312 65 -107.453 -137.286
15 68.9909 -133.023 116.337 70 -117.29 21.4843
16 65.9202 -129.077 116.361 75 -111.268 83.0478
17 62.8496 -125.131 116.385 80 -104.47 -160.65
18 59.7789 -121.184 116.409 85 -124.297 174.995
19 56.7082 -117.238 116.433 90 -100.811 155.122
20 53.6376 -113.292 116.457 95 -97.3203 57.63
21 50.5669 -109.346 116.482 100 -106.26 115.326
22 47.4962 -105.4 116.506 105 -108.631 119.271
23 44.4256 -101.454 116.53 110 -104.029 57.7305
24 41.3549 -97.5084 116.554 115 -103.392 76.4026
25 38.2842 -93.5624 116.578 120 -105.277 65.6815
26 35.2136 -89.6164 116.603 125 -103.34 93.4304
27 32.1429 -85.6704 116.627 130 -96.9998 -162.423
28 29.0723 -81.7244 116.651 135 -99.3817 -50.7089
29 26.0016 -77.7784 116.675 140 -97.7695 38.7009
30 22.9309 -73.8323 116.699 145 -98.3605 59.9149
31 19.8603 -69.8863 116.723 150 -95.3115 73.4947
32 16.7896 -65.9403 116.748 155 -98.8462 -33.3355
33 13.7189 -61.9943 116.772 160 -97.0208 -57.6899
34 10.6483 -58.0483 116.796 165 -100.972 -96.0503
35 7.5776 -54.1023 116.82 170 -102.226 169.833
36 4.50693 -50.1563 116.844 175 -106.634 61.4481
37 1.43627 -46.2103 116.868 180 -104.598 85.8255
38 -1.6344 -42.2642 116.895 185 -120.985 -177.622
39 -4.70506 -38.3182 116.925 190 -105.895 -46.1311
40 -7.77573 -34.3722 116.955 195 -98.9129 -16.4384
41 -10.8464 -30.4262 116.986 200 -115.92 111.565
42 -13.9171 -26.4802 117.015 205 -98.5366 -61.6069
43 -16.9877 -22.5342 116.965 210 -99.4279 -139.345
44 -20.0584 -18.5882 116.915 215 -105.147 144.427
45 -23.1291 -14.6422 116.865 220 -109.737 -160.221
46 -26.1997 -10.6961 116.815 225 -109.621 -58.4803
47 -29.2704 -6.75013 116.765 230 -111.228 60.39
48 -32.341 -2.80412 116.715 235 -107.4 114.791
49 -35.4117 1.1419 116.665 240 -113.956 -35.9541
50 -38.4824 5.08791 116.615 245 -124.56 110.135
51 -41.553 9.03392 116.565 250 -105.151 -45.6992
52 -39.5622 10.7991 116.685 255 -100.254 143.946
53 -34.5852 11.2777 116.905 260 -99.8181 -94.8859
54 -29.6081 11.7563 117.125 265 -101.651 80.3605
55 -24.6311 12.2348 117.345 270 -100.348 -113.761
56 -19.654 12.7134 117.565 275 -102.427 -111.946
57 -14.677 13.1919 117.784 280 -109.65 23.6611
58 -9.69994 13.6705 117.854 285 -100.325 -173.935
59 -4.72289 14.1491 117.84 290 -87.5051 -150.276
60 0.254154 14.6276 117.826 295 -104.642 5.77123
61 5.2312 15.1062 117.813 300 -103.629 -63.9533
62 10.2082 15.5847 117.799 305 -108.77 -91.5734
63 15.1853 16.0633 117.785 310 -102.302 -23.6652
64 20.1623 16.5419 117.772 315 -92.1429 -87.5608
65 25.1394 17.0204 117.758 320 -95.6286 -112.074
66 30.1122 17.5099 117.744 325 -103.51 101.701
67 34.13 20.486 117.786 330 -98.8898 -142.8
68 38.1478 23.4622 117.827 335 -105.396 66.634
69 42.1656 26.4383 117.868 340 -101.816 80.0524
70 46.1834 29.4145 117.91 345 -101.372 -36.2656
71 50.3139 32.2139 117.947 350 -99.6947 -1.98537
72 54.7062 34.603 117.975 355 -102.432 -83.9482
73 59.0984 36.9922 118.002 360 -102.603 116.75
74 63.4906 39.3814 118.03 365 -112.361 17.5281
75 67.8829 41.7706 118.058 370 -109.345 -61.8223
76 72.2751 44.1598 118.085 375 -110.657 94.3317
77 76.6674 46.549 118.113 380 -130.769 -142.294
78 81.0596 48.9382 118.141 385 -108.38 90.4998
79 85.4519 51.3273 118.168 390 -105.996 -153.459
80 89.8441 53.7165 118.196 395 -117.138 -108.258
81 94.2363 56.1057 118.224 400 -116.22 -146.089
82 98.6286 58.4949 118.251 405 -116.204 -147.606
83 103.021 60.8841 118.279 410 -112.692 -142.33
84 107.413 63.2733 118.307 415 -102.387 178.938
85 111.805 65.6625 118.334 420 -118.273 -58.047
86 116.198 68.0517 118.362 425 -112.413 101.075
87 120.59 70.4408 118.508 430 -110.766 -162.746
88 124.982 72.83 118.657 435 -130.559 -126.895
89 129.374 75.2192 118.806 440 -124.122 -175.392
90 133.767 77.6084 118.954 445 -112.254 -24.7261
91 138.159 79.9976 119.103 450 -110.74 -130.585
92 142.551 82.3868 119.252 455 -119.799 -21.2217
93 146.943 84.776 119.401 460 -107.582 -108.177
94 151.335 87.1651 119.549 465 -115.689 -46.1107
95 155.728 89.5543 119.698 470 -112.382 -135.127
96 160.12 91.9435 119.847 475 -110.416 38.9844
97 164.512 94.3327 119.996 480 -113.897 -12.5138
98 168.904 96.7219 120.144 485 -115.685 -14.75
99 173.297 99.1111 120.293 490 -114.105 53.0876
