#Rx
# X(m), Y(m), Z(m), Distance(m), Power (dBm) Phase (deg)
1 111.98 -186.867 115.981 0 -108.386 -146.654
2 108.98 -182.867 116.003 5 -106.136 177.465
3 105.98 -178.867 116.025 10 -106.674 81.1049
4 102.98 -174.867 116.047 15 -100.147 -105.809
5 99.9802 -170.867 116.069 20 -100.339 -116.263
6 96.9802 -166.867 116.09 25 -102.913 -104.279
7 93.9802 -162.867 116.112 30 -110.026 -149.245
8 90.9802 -158.867 116.134 35 -104.133 -6.17759
9 87.9802 -154.867 116.156 40 -105.049 -129.242
10 84.9802 -150.867 116.178 45 -102.138 7.90204
11 81.9802 -146.867 116.2 50 -112.902 -13.1348
12 78.9802 -142.867 116.222 55 -111.723 -166.848
13 79.9607 -138.387 116.144 60 -104.364 135.099
14 81.9241 -133.789 116.133 65 -105.664 3.35897
15 83.8874 -129.19 116.142 70 -107.563 -104.038
16 85.8508 -124.592 116.151 75 -104.102 -85.9905
17 87.8142 -119.993 116.161 80 -112.313 -98.1077
18 89.7775 -115.395 116.17 85 -114.034 -148.598
19 91.7409 -110.797 116.18 90 -122.951 -20.6787
20 93.7042 -106.198 116.189 95 -99.4394 -64.1704
21 95.6676 -101.6 116.198 100 -107.8 -11.8124
22 97.6309 -97.0015 116.208 105 -103.405 -109.728
23 99.5943 -92.4031 116.217 110 -111.781 -4.69207
24 101.558 -87.8047 116.226 115 -114.186 108.511
25 103.521 -83.2063 116.236 120 -100.172 84.9318
26 105.965 -78.9659 116.242 125 -105.481 -141.148
27 109.807 -75.765 116.236 130 -115.481 -22.884
28 113.648 -72.5641 116.231 135 -101.254 32.4485
29 117.489 -69.3632 116.226 140 -103.914 21.7504
30 121.33 -66.1622 116.221 145 -121.328 160.302
31 125.171 -62.9613 116.216 150 -103.067 142.961
32 129.012 -59.7604 116.211 155 -97.3877 151.421
33 132.853 -56.5595 116.206 160 -104.576 -164.133
34 136.694 -53.3586 116.201 165 -101.962 -3.59321
35 140.535 -50.1576 116.196 170 -104.723 160.565
36 144.376 -46.9567 116.191 175 -100.704 -101.078
37 148.218 -43.7558 116.186 180 -108.077 -147.475
38 152.059 -40.5549 116.181 185 -106.911 142.998
39 155.9 -37.3539 116.175 190 -107.735 9.39888
40 159.741 -34.153 116.17 195 -105.593 134.01
41 163.582 -30.9521 116.165 200 -113.902 -95.5091
42 167.423 -27.7512 116.185 205 -112.482 47.8825
43 171.264 -24.5503 116.232 210 -131.273 -49.5266
44 175.105 -21.3493 116.279 215 -250 0
45 178.946 -18.1484 116.325 220 -120.914 42.7094
46 178.725 -14.5724 116.399 225 -140.046 164.943
47 175.535 -10.7223 116.492 230 -139.043 71.9414
48 172.345 -6.87217 116.584 235 -123.09 163.125
49 169.155 -3.02206 116.677 240 -120.974 25.426
50 165.964 0.828046 116.77 245 -120.332 52.538
51 162.774 4.67815 116.863 250 -110.334 -78.0278
52 159.584 8.52826 116.955 255 -108.125 68.1593
53 156.394 12.3784 117.048 260 -108.888 -152.392
54 153.204 16.2285 117.141 265 -106.453 -64.8265
55 150.014 20.0786 117.234 270 -107.523 -27.3439
56 146.824 23.9287 117.327 275 -109.855 31.2069
57 143.634 27.7788 117.419 280 -135.732 -93.3544
58 140.444 31.6289 117.512 285 -118.189 -62.646
59 137.254 35.479 117.605 290 -119.539 -143.204
60 134.064 39.3291 117.698 295 -115.203 -36.8062
61 130.873 43.1792 117.791 300 -115.965 6.89655
62 127.683 47.0293 117.883 305 -124.171 -174.124
63 124.493 50.8794 117.976 310 -110.239 -149.065
64 121.303 54.7296 118.069 315 -104.177 114.665
65 121.56 58.2657 118.139 320 -100.408 -27.8872
66 125.393 61.476 118.25 325 -105.07 165.626
67 129.227 64.6863 118.42 330 -104.919 5.66489
68 133.06 67.8967 118.591 335 -123.841 -51.4873
69 136.893 71.107 118.762 340 -126.133 -113.304
70 140.726 74.3173 118.933 345 -115.032 58.0747
71 144.56 77.5277 119.103 350 -115.963 -125.853
72 148.393 80.738 119.274 355 -114.726 78.7724
73 152.226 83.9484 119.445 360 -110.783 -115.87
74 156.059 87.1587 119.616 365 -108.316 123.588
75 159.893 90.369 119.787 370 -106.806 -37.486
76 163.726 93.5794 119.957 375 -118.208 101.585
77 167.559 96.7897 120.128 380 -120.722 117.946
78 171.392 100 120.299 385 -121.813 -158.939
79 175.226 103.21 120.47 390 -138.881 -133.726
