#Rx
# X(m), Y(m), Z(m), Distance(m), Power (dBm) Phase (deg)
1 111.98 -188.267 115.998 0 -86.6701 68.6862
2 108.91 -184.321 116.022 5 -91.2488 33.3364
3 105.839 -180.375 116.046 10 -104.559 130.494
4 102.768 -176.429 116.071 15 -97.3072 117.134
5 99.6975 -172.483 116.095 20 -103.803 -106.495
6 96.6269 -168.537 116.119 25 -106.748 -44.215
7 93.5562 -164.591 116.143 30 -108.586 -143.543
8 90.4855 -160.645 116.167 35 -95.223 -28.3987
9 87.4149 -156.699 116.191 40 -104.964 -111.587
10 84.3442 -152.753 116.216 45 -101.965 -45.8884
11 81.2736 -148.807 116.24 50 -107.995 -73.6167
12 78.2029 -144.861 116.264 55 -105.548 -97.967
13 75.1322 -140.915 116.288 60 -106.463 -34.1693
14 72.0616 -136.969 116.312 65 -108.329 43.3597
15 68.9909 -133.023 116.337 70 -113.827 -169.272
16 65.9202 -129.077 116.361 75 -110.105 -82.9414
17 62.8496 -125.131 116.385 80 -101.645 -21.6958
18 59.7789 -121.184 116.409 85 -107.329 -28.6065
19 56.7082 -117.238 116.433 90 -120.289 150.569
20 53.6376 -113.292 116.457 95 -102.623 -133.379
21 50.5669 -109.346 116.482 100 -95.0184 -90.157
22 47.4962 -105.4 116.506 105 -98.1397 -149.733
23 44.4256 -101.454 116.53 110 -103.419 -101.141
24 41.3549 -97.5084 116.554 115 -120.074 130.692
25 38.2842 -93.5624 116.578 120 -105.038 17.199
26 35.2136 -89.6164 116.603 125 -108.241 129.278
27 32.1429 -85.6704 116.627 130 -103.987 131.588
28 29.0723 -81.7244 116.651 135 -111.094 141.73
29 26.0016 -77.7784 116.675 140 -106.068 -106.235
30 22.9309 -73.8323 116.699 145 -102.302 -100.593
31 19.8603 -69.8863 116.723 150 -99.2645 -161.77
32 16.7896 -65.9403 116.748 155 -107.047 -85.5651
33 13.7189 -61.9943 116.772 160 -104.261 55.4603
34 10.6483 -58.0483 116.796 165 -101.079 64.9491
35 7.5776 -54.1023 116.82 170 -110.438 102.671
36 4.50693 -50.1563 116.844 175 -108.871 156.662
37 1.43627 -46.2103 116.868 180 -99.1366 92.0866
38 -1.6344 -42.2642 116.895 185 -101.165 136.641
39 -4.70506 -38.3182 116.925 190 -100.079 152.758
40 -7.77573 -34.3722 116.955 195 -105.887 41.4956
41 -10.8464 -30.4262 116.986 200 -104.604 -98.9747
42 -13.9171 -26.4802 117.015 205 -124.372 -0.643195
43 -16.9877 -22.5342 116.965 210 -97.9376 -59.0487
44 -20.0584 -18.5882 116.915 215 -109.308 -157.986
45 -23.1291 -14.6422 116.865 220 -106.128 8.18573
46 -26.1997 -10.6961 116.815 225 -103.449 -118.311
47 -29.2704 -6.75013 116.765 230 -111.994 -74.1884
48 -32.341 -2.80412 116.715 235 -117.843 -120.5
49 -35.4117 1.1419 116.665 240 -115.153 146.237
50 -38.4824 5.08791 116.615 245 -103.967 148.483
51 -41.553 9.03392 116.565 250 -113.254 -160.257
52 -39.5622 10.7991 116.685 255 -117.156 -97.0913
53 -34.5852 11.2777 116.905 260 -101.993 156.621
54 -29.6081 11.7563 117.125 265 -100.799 -93.1548
55 -24.6311 12.2348 117.345 270 -100.229 38.1184
56 -19.654 12.7134 117.565 275 -110.627 31.6804
57 -14.677 13.1919 117.784 280 -105.421 -80.6043
58 -9.69994 13.6705 117.854 285 -99.7431 -38.1168
59 -4.72289 14.1491 117.84 290 -104.958 103.479
60 0.254154 14.6276 117.826 295 -97.4087 96.1251
61 5.2312 15.1062 117.813 300 -101.449 10.5176
62 10.2082 15.5847 117.799 305 -102.199 7.31097
63 15.1853 16.0633 117.785 310 -94.1599 -85.3242
64 20.1623 16.5419 117.772 315 -106.408 -49.1586
65 25.1394 17.0204 117.758 320 -98.7683 3.63759
66 30.1122 17.5099 117.744 325 -107.554 72.0173
67 34.13 20.486 117.786 330 -106.079 70.2207
68 38.1478 23.4622 117.827 335 -109.497 11.6393
69 42.1656 26.4383 117.868 340 -108.619 -141.314
70 46.1834 29.4145 117.91 345 -109.499 -109.397
71 50.3139 32.2139 117.947 350 -106.645 -46.3877
72 54.7062 34.603 117.975 355 -113.305 12.1578
73 59.0984 36.9922 118.002 360 -114.116 -64.3825
74 63.4906 39.3814 118.03 365 -111.995 -92.1817
75 67.8829 41.7706 118.058 370 -120.655 -113.056
76 72.2751 44.1598 118.085 375 -115.897 100.744
77 76.6674 46.549 118.113 380 -116.13 140.229
78 81.0596 48.9382 118.141 385 -115.751 149.309
79 85.4519 51.3273 118.168 390 -120.618 79.9927
80 89.8441 53.7165 118.196 395 -114.252 -96.2321
81 94.2363 56.1057 118.224 400 -118.459 115.031
82 98.6286 58.4949 118.251 405 -129.518 112.823
83 103.021 60.8841 118.279 410 -111.798 2.6741
84 107.413 63.2733 118.307 415 -124.075 -65.7117
85 111.805 65.6625 118.334 420 -126.686 34.6117
86 116.198 68.0517 118.362 425 -250 0
87 120.59 70.4408 118.508 430 -250 0
88 124.982 72.83 118.657 435 -250 0
89 129.374 75.2192 118.806 440 -250 0
90 133.767 77.6084 118.954 445 -110.219 -179.341
91 138.159 79.9976 119.103 450 -109.681 -141.481
92 142.551 82.3868 119.252 455 -132.745 15.567
93 146.943 84.776 119.401 460 -114.697 54.9594
94 151.335 87.1651 119.549 465 -118.008 21.1471
95 155.728 89.5543 119.698 470 -134.191 -149.536
96 160.12 91.9435 119.847 475 -117.884 -144.769
97 164.512 94.3327 119.996 480 -127.987 -176.306
98 168.904 96.7219 120.144 485 -132.825 -65.8654
99 173.297 99.1111 120.293 490 -137.524 -108.592
