#Rx
# X(m), Y(m), Z(m), Distance(m), Power (dBm) Phase (deg)
1 111.98 -188.267 115.998 0 -108.757 -126.792
2 108.91 -184.321 116.022 5 -108.67 -27.9669
3 105.839 -180.375 116.046 10 -108.308 31.4146
4 102.768 -176.429 116.071 15 -109.29 57.2212
5 99.6975 -172.483 116.095 20 -108.452 28.1419
6 96.6269 -168.537 116.119 25 -106.829 47.4524
7 93.5562 -164.591 116.143 30 -110.475 -78.013
8 90.4855 -160.645 116.167 35 -107.814 -104.339
9 87.4149 -156.699 116.191 40 -109.302 47.2586
10 84.3442 -152.753 116.216 45 -103.463 -67.385
11 81.2736 -148.807 116.24 50 -105.214 165.56
12 78.2029 -144.861 116.264 55 -108.746 90.2829
13 75.1322 -140.915 116.288 60 -112.892 142.156
14 72.0616 -136.969 116.312 65 -124.363 19.6764
15 68.9909 -133.023 116.337 70 -112.847 -141.177
16 65.9202 -129.077 116.361 75 -123.059 -78.5716
17 62.8496 -125.131 116.385 80 -105.666 84.9988
18 59.7789 -121.184 116.409 85 -100.785 58.3352
19 56.7082 -117.238 116.433 90 -108.804 -44.2943
20 53.6376 -113.292 116.457 95 -116.334 -73.7543
21 50.5669 -109.346 116.482 100 -109.952 -69.5602
22 47.4962 -105.4 116.506 105 -107.346 -101.162
23 44.4256 -101.454 116.53 110 -107.785 63.1775
24 41.3549 -97.5084 116.554 115 -111.819 92.5685
25 38.2842 -93.5624 116.578 120 -117.548 -60.6079
26 35.2136 -89.6164 116.603 125 -109.969 86.6267
27 32.1429 -85.6704 116.627 130 -107.664 -17.1482
28 29.0723 -81.7244 116.651 135 -100.785 -44.7369
29 26.0016 -77.7784 116.675 140 -101.049 177.614
30 22.9309 -73.8323 116.699 145 -117.321 -29.11
31 19.8603 -69.8863 116.723 150 -108.182 64.2535
32 16.7896 -65.9403 116.748 155 -102.437 48.1857
33 13.7189 -61.9943 116.772 160 -110.795 -137.726
34 10.6483 -58.0483 116.796 165 -100.25 -90.4238
35 7.5776 -54.1023 116.82 170 -112.759 119.735
36 4.50693 -50.1563 116.844 175 -107.612 63.6783
37 1.43627 -46.2103 116.868 180 -107.07 88.6474
38 -1.6344 -42.2642 116.895 185 -110.535 40.4468
39 -4.70506 -38.3182 116.925 190 -105.458 -83.8589
40 -7.77573 -34.3722 116.955 195 -114.449 108.901
41 -10.8464 -30.4262 116.986 200 -104.973 -59.0361
42 -13.9171 -26.4802 117.015 205 -99.3283 70.492
43 -16.9877 -22.5342 116.965 210 -109.094 74.5524
44 -20.0584 -18.5882 116.915 215 -101.417 -2.79059
45 -23.1291 -14.6422 116.865 220 -108.091 159.532
46 -26.1997 -10.6961 116.815 225 -117.699 -85.157
47 -29.2704 -6.75013 116.765 230 -129.934 -88.1205
48 -32.341 -2.80412 116.715 235 -121.789 25.162
49 -35.4117 1.1419 116.665 240 -114.217 -38.9278
50 -38.4824 5.08791 116.615 245 -129.921 100.7
51 -41.553 9.03392 116.565 250 -111.878 66.9068
52 -39.5622 10.7991 116.685 255 -107.305 32.4537
53 -34.5852 11.2777 116.905 260 -137.869 -54.3734
54 -29.6081 11.7563 117.125 265 -115.987 -41.9142
55 -24.6311 12.2348 117.345 270 -117.147 153.366
56 -19.654 12.7134 117.565 275 -116.78 -35.4385
57 -14.677 13.1919 117.784 280 -102.69 -16.0707
58 -9.69994 13.6705 117.854 285 -107.416 12.6645
59 -4.72289 14.1491 117.84 290 -107.17 129.075
60 0.254154 14.6276 117.826 295 -103.956 131.605
61 5.2312 15.1062 117.813 300 -105.215 14.8537
62 10.2082 15.5847 117.799 305 -103.419 86.3703
63 15.1853 16.0633 117.785 310 -106.987 123.254
64 20.1623 16.5419 117.772 315 -116.346 56.6756
65 25.1394 17.0204 117.758 320 -109.634 -113.476
66 30.1122 17.5099 117.744 325 -117.061 42.4021
67 34.13 20.486 117.786 330 -113.09 109.061
68 38.1478 23.4622 117.827 335 -104.123 -179.366
69 42.1656 26.4383 117.868 340 -98.6635 66.3426
70 46.1834 29.4145 117.91 345 -120.275 -165.44
71 50.3139 32.2139 117.947 350 -102.523 56.4322
72 54.7062 34.603 117.975 355 -118.941 -22.6701
73 59.0984 36.9922 118.002 360 -106.119 140.958
74 63.4906 39.3814 118.03 365 -108.982 143.646
75 67.8829 41.7706 118.058 370 -106.941 162.105
76 72.2751 44.1598 118.085 375 -113.516 0.232627
77 76.6674 46.549 118.113 380 -99.9273 -116.8
78 81.0596 48.9382 118.141 385 -98.1613 70.8253
79 85.4519 51.3273 118.168 390 -100.046 -97.2556
80 89.8441 53.7165 118.196 395 -100.73 46.4177
81 94.2363 56.1057 118.224 400 -100.741 142.126
82 98.6286 58.4949 118.251 405 -99.8208 -138.753
83 103.021 60.8841 118.279 410 -100.179 -86.7081
84 107.413 63.2733 118.307 415 -97.6686 -100.141
85 111.805 65.6625 118.334 420 -94.7655 -114.969
86 116.198 68.0517 118.362 425 -92.2881 -171.003
87 120.59 70.4408 118.508 430 -96.0204 72.7888
88 124.982 72.83 118.657 435 -95.9278 -110.369
89 129.374 75.2192 118.806 440 -101.271 -18.8624
90 133.767 77.6084 118.954 445 -98.0139 4.86028
91 138.159 79.9976 119.103 450 -95.3465 -25.944
92 142.551 82.3868 119.252 455 -101.421 130.888
93 146.943 84.776 119.401 460 -103.513 117.68
94 151.335 87.1651 119.549 465 -101.415 128.637
95 155.728 89.5543 119.698 470 -111.377 139.71
96 160.12 91.9435 119.847 475 -115.029 96.5165
97 164.512 94.3327 119.996 480 -106.741 177.633
98 168.904 96.7219 120.144 485 -115.398 25.9406
99 173.297 99.1111 120.293 490 -119.579 8.73292
