#Rx
# X(m), Y(m), Z(m), Distance(m), Power (dBm) Phase (deg)
1 111.98 -186.867 115.981 0 -107.823 6.93872
2 108.98 -182.867 116.003 5 -106.937 142.229
3 105.98 -178.867 116.025 10 -110.06 -129.813
4 102.98 -174.867 116.047 15 -106.169 -66.1753
5 99.9802 -170.867 116.069 20 -104.329 -52.0487
6 96.9802 -166.867 116.09 25 -113.092 -80.7389
7 93.9802 -162.867 116.112 30 -105.275 -93.5641
8 90.9802 -158.867 116.134 35 -109.69 150.949
9 87.9802 -154.867 116.156 40 -111.066 18.3352
10 84.9802 -150.867 116.178 45 -106.33 -85.3545
11 81.9802 -146.867 116.2 50 -110.927 91.6791
12 78.9802 -142.867 116.222 55 -108.138 -20.7524
13 79.9607 -138.387 116.144 60 -108.107 175.34
14 81.9241 -133.789 116.133 65 -111.985 74.6571
15 83.8874 -129.19 116.142 70 -105.678 -42.3551
16 85.8508 -124.592 116.151 75 -123.369 -175.819
17 87.8142 -119.993 116.161 80 -110.543 -147.854
18 89.7775 -115.395 116.17 85 -104.636 1.2986
19 91.7409 -110.797 116.18 90 -123.036 -67.3712
20 93.7042 -106.198 116.189 95 -116.052 -54.0227
21 95.6676 -101.6 116.198 100 -110.037 33.8811
22 97.6309 -97.0015 116.208 105 -104.122 -117.711
23 99.5943 -92.4031 116.217 110 -105.678 115.235
24 101.558 -87.8047 116.226 115 -106.133 65.9672
25 103.521 -83.2063 116.236 120 -103.738 -104.564
26 105.965 -78.9659 116.242 125 -101.19 -4.06392
27 109.807 -75.765 116.236 130 -101.206 -24.9207
28 113.648 -72.5641 116.231 135 -108.871 137.072
29 117.489 -69.3632 116.226 140 -103.671 -171.836
30 121.33 -66.1622 116.221 145 -101.736 -69.338
31 125.171 -62.9613 116.216 150 -103.856 19.7668
32 129.012 -59.7604 116.211 155 -103.893 81.8382
33 132.853 -56.5595 116.206 160 -102.741 35.4137
34 136.694 -53.3586 116.201 165 -103.813 25.3492
35 140.535 -50.1576 116.196 170 -102.794 -120.328
36 144.376 -46.9567 116.191 175 -125.473 -19.064
37 148.218 -43.7558 116.186 180 -101.849 36.0306
38 152.059 -40.5549 116.181 185 -105.743 148.25
39 155.9 -37.3539 116.175 190 -102.875 147.992
40 159.741 -34.153 116.17 195 -100.688 -16.093
41 163.582 -30.9521 116.165 200 -107.329 -140.856
42 167.423 -27.7512 116.185 205 -103.9 79.7831
43 171.264 -24.5503 116.232 210 -102.057 -44.3865
44 175.105 -21.3493 116.279 215 -113.576 50.145
45 178.946 -18.1484 116.325 220 -99.6513 -93.7524
46 178.725 -14.5724 116.399 225 -106.294 121.287
47 175.535 -10.7223 116.492 230 -100.348 -92.1531
48 172.345 -6.87217 116.584 235 -100.311 -131.927
49 169.155 -3.02206 116.677 240 -99.4844 -151.95
50 165.964 0.828046 116.77 245 -110.219 -153.948
51 162.774 4.67815 116.863 250 -105.781 -140.4
52 159.584 8.52826 116.955 255 -105.961 75.7194
53 156.394 12.3784 117.048 260 -108.996 23.588
54 153.204 16.2285 117.141 265 -103.491 -103.638
55 150.014 20.0786 117.234 270 -102.725 111.469
56 146.824 23.9287 117.327 275 -109.752 -79.3165
57 143.634 27.7788 117.419 280 -102.785 127.366
58 140.444 31.6289 117.512 285 -115.55 21.9661
59 137.254 35.479 117.605 290 -101.99 73.9756
60 134.064 39.3291 117.698 295 -102.251 -83.4072
61 130.873 43.1792 117.791 300 -116.478 -55.1751
62 127.683 47.0293 117.883 305 -97.3745 -160.822
63 124.493 50.8794 117.976 310 -95.2314 31.3127
64 121.303 54.7296 118.069 315 -92.9423 78.8454
65 121.56 58.2657 118.139 320 -98.5384 -173.361
66 125.393 61.476 118.25 325 -98.0601 -49.5973
67 129.227 64.6863 118.42 330 -97.7367 15.689
68 133.06 67.8967 118.591 335 -96.7884 -14.5636
69 136.893 71.107 118.762 340 -101.459 -143.396
70 140.726 74.3173 118.933 345 -101.339 23.1628
71 144.56 77.5277 119.103 350 -102.581 8.86463
72 148.393 80.738 119.274 355 -98.0293 94.217
73 152.226 83.9484 119.445 360 -96.3408 -0.72372
74 156.059 87.1587 119.616 365 -105.766 138.958
75 159.893 90.369 119.787 370 -104.419 -90.896
76 163.726 93.5794 119.957 375 -109.818 8.57726
77 167.559 96.7897 120.128 380 -119.887 -44.9915
78 171.392 100 120.299 385 -123.254 10.8766
79 175.226 103.21 120.47 390 -119.066 -20.6277
