#Rx
# X(m), Y(m), Z(m), Distance(m), Power (dBm) Phase (deg)
1 111.98 -187.567 115.99 0 -109.627 19.7327
2 109.037 -183.525 116.01 5 -105.004 49.2981
3 106.094 -179.483 116.03 10 -111.021 -37.0184
4 103.151 -175.441 116.05 15 -111.189 177.816
5 100.207 -171.399 116.07 20 -115.71 37.7373
6 97.2642 -167.357 116.09 25 -111.608 -79.8801
7 94.3211 -163.315 116.11 30 -111.048 95.8082
8 91.3779 -159.273 116.13 35 -111.539 -112.711
9 88.4347 -155.231 116.15 40 -110.633 2.47328
10 85.4915 -151.189 116.17 45 -114.889 142.689
11 82.5483 -147.147 116.19 50 -111.49 -167.024
12 79.6051 -143.105 116.21 55 -113.27 -74.8791
13 76.6619 -139.063 116.23 60 -104.598 -90.7291
14 73.7187 -135.021 116.25 65 -117.695 -85.1215
15 70.7755 -130.979 116.27 70 -117.449 81.615
16 67.8323 -126.937 116.29 75 -105.354 21.7022
17 64.8891 -122.895 116.31 80 -114.183 89.7771
18 61.946 -118.853 116.33 85 -99.3661 -27.6135
19 59.6748 -114.674 116.333 90 -102.102 -138.337
20 60.7956 -109.801 116.329 95 -100.966 45.1548
21 61.9163 -104.928 116.343 100 -112.488 39.4628
22 63.037 -100.055 116.358 105 -114.29 -108.59
23 64.1578 -95.1827 116.372 110 -109.421 -155.705
24 65.2785 -90.3099 116.387 115 -99.2469 -23.6059
25 66.3993 -85.4371 116.401 120 -97.6311 -172.559
26 67.52 -80.5643 116.415 125 -96.8763 22.0985
27 68.6407 -75.6916 116.43 130 -111.895 40.3969
28 69.7615 -70.8188 116.444 135 -107.052 39.5454
29 70.8822 -65.946 116.459 140 -106.229 1.73801
30 72.0029 -61.0732 116.473 145 -107.083 -46.0699
31 73.1237 -56.2004 116.488 150 -102.157 -171.1
32 74.2444 -51.3277 116.502 155 -106.611 9.80933
33 75.3652 -46.4549 116.517 160 -109.23 -47.6341
34 72.9995 -42.4257 116.544 165 -108.489 -108.857
35 69.7751 -38.6042 116.574 170 -105.912 130.707
36 66.5508 -34.7828 116.605 175 -101.942 -0.756274
37 63.3264 -30.9613 116.636 180 -101.857 50.7401
38 60.102 -27.1399 116.701 185 -103.277 97.9174
39 56.8777 -23.3184 116.794 190 -98.511 -2.69025
40 60.225 -19.9851 116.845 195 -96.3968 30.5358
41 63.9786 -16.6819 116.894 200 -110.287 7.69577
42 67.7322 -13.3788 116.944 205 -99.8653 75.5858
43 71.4857 -10.0757 116.993 210 -104.562 -150.064
44 74.2987 -6.30123 117.056 215 -101.473 -153.466
45 74.6974 -1.31715 117.155 220 -101.143 170.477
46 75.0961 3.66692 117.254 225 -106.898 117.015
47 75.4949 8.651 117.352 230 -102.083 -15.0112
48 75.8936 13.6351 117.451 235 -105.929 110.776
49 76.2923 18.6192 117.55 240 -102.42 -171.228
50 76.691 23.6032 117.649 245 -107.125 125.457
51 77.0898 28.5873 117.748 250 -84.2274 -60.5279
52 77.4885 33.5714 117.847 255 -84.3808 48.5432
53 77.8872 38.5555 117.946 260 -109.041 87.8336
54 78.2859 43.5395 118.045 265 -101.72 133.52
55 81.6188 46.6798 118.092 270 -96.6816 69.0954
56 85.9366 49.2011 118.123 275 -102.049 -152.011
57 90.2543 51.7224 118.154 280 -102.303 42.6592
58 94.5721 54.2437 118.185 285 -93.588 -80.8512
59 98.8898 56.765 118.215 290 -99.7539 -125.998
60 103.208 59.2863 118.246 295 -98.8592 -75.8063
61 107.525 61.8077 118.277 300 -98.1927 77.4284
62 111.843 64.329 118.307 305 -99.1676 136.63
63 116.161 66.8503 118.338 310 -98.8437 -173.866
64 120.479 69.3716 118.468 315 -99.7727 -121.033
65 124.796 71.8929 118.62 320 -105.266 -129.955
66 129.114 74.4142 118.773 325 -103.732 117.648
67 133.432 76.9355 118.925 330 -101.043 91.2398
68 137.75 79.4569 119.078 335 -107.716 -76.7041
69 142.067 81.9782 119.23 340 -107.868 -130.73
70 146.385 84.4995 119.383 345 -113.79 159.691
71 150.703 87.0208 119.535 350 -109.365 17.1721
72 155.021 89.5421 119.688 355 -115.254 80.1701
73 159.338 92.0634 119.84 360 -104.807 100.829
74 163.656 94.5847 119.993 365 -102.864 -175.278
75 167.974 97.1061 120.145 370 -111.846 130.34
76 172.292 99.6274 120.298 375 -108.897 -86.9898
