#Rx
# X(m), Y(m), Z(m), Distance(m), Power (dBm) Phase (deg)
1 111.98 -188.267 115.998 0 -108.997 -24.0535
2 108.91 -184.321 116.022 5 -110.711 76.7694
3 105.839 -180.375 116.046 10 -106.574 -168.68
4 102.768 -176.429 116.071 15 -115.246 45.1725
5 99.6975 -172.483 116.095 20 -109.359 95.5347
6 96.6269 -168.537 116.119 25 -113.188 -112.638
7 93.5562 -164.591 116.143 30 -113.704 -8.91877
8 90.4855 -160.645 116.167 35 -114.073 47.3919
9 87.4149 -156.699 116.191 40 -113.109 83.305
10 84.3442 -152.753 116.216 45 -112.204 72.8032
11 81.2736 -148.807 116.24 50 -109.75 101.056
12 78.2029 -144.861 116.264 55 -109.186 23.2628
13 75.1322 -140.915 116.288 60 -109.907 -56.79
14 72.0616 -136.969 116.312 65 -103.593 140.653
15 68.9909 -133.023 116.337 70 -112.407 -116.394
16 65.9202 -129.077 116.361 75 -106.65 -160.565
17 62.8496 -125.131 116.385 80 -102.09 -45.2147
18 59.7789 -121.184 116.409 85 -103.688 109
19 56.7082 -117.238 116.433 90 -109.325 109.311
20 53.6376 -113.292 116.457 95 -105.834 127.469
21 50.5669 -109.346 116.482 100 -106.463 119.857
22 47.4962 -105.4 116.506 105 -104.004 -43.4753
23 44.4256 -101.454 116.53 110 -101.698 108.63
24 41.3549 -97.5084 116.554 115 -110.192 -108.646
25 38.2842 -93.5624 116.578 120 -107.441 10.4938
26 35.2136 -89.6164 116.603 125 -112.285 98.6597
27 32.1429 -85.6704 116.627 130 -102.079 80.2497
28 29.0723 -81.7244 116.651 135 -107.312 73.7132
29 26.0016 -77.7784 116.675 140 -100.451 64.4301
30 22.9309 -73.8323 116.699 145 -116.943 150.903
31 19.8603 -69.8863 116.723 150 -99.518 64.7936
32 16.7896 -65.9403 116.748 155 -113.005 -177.899
33 13.7189 -61.9943 116.772 160 -93.0414 31.1464
34 10.6483 -58.0483 116.796 165 -92.5415 -120.659
35 7.5776 -54.1023 116.82 170 -94.5542 57.0036
36 4.50693 -50.1563 116.844 175 -94.9099 -154.581
37 1.43627 -46.2103 116.868 180 -98.3634 -153.441
38 -1.6344 -42.2642 116.895 185 -106.379 -73.6784
39 -4.70506 -38.3182 116.925 190 -114.967 -80.2493
40 -7.77573 -34.3722 116.955 195 -108.62 136.556
41 -10.8464 -30.4262 116.986 200 -105.246 -125.597
42 -13.9171 -26.4802 117.015 205 -102.896 -151.908
43 -16.9877 -22.5342 116.965 210 -101.869 -177.061
44 -20.0584 -18.5882 116.915 215 -106.927 168.598
45 -23.1291 -14.6422 116.865 220 -110.969 111.043
46 -26.1997 -10.6961 116.815 225 -107.851 17.1634
47 -29.2704 -6.75013 116.765 230 -112.951 129.631
48 -32.341 -2.80412 116.715 235 -111.663 -29.5641
49 -35.4117 1.1419 116.665 240 -101.45 -2.37113
50 -38.4824 5.08791 116.615 245 -104.426 26.7875
51 -41.553 9.03392 116.565 250 -104.039 -13.6236
52 -39.5622 10.7991 116.685 255 -111.14 -130.838
53 -34.5852 11.2777 116.905 260 -105 167.93
54 -29.6081 11.7563 117.125 265 -111.752 -160.254
55 -24.6311 12.2348 117.345 270 -101.672 131.154
56 -19.654 12.7134 117.565 275 -107.59 65.085
57 -14.677 13.1919 117.784 280 -102.527 78.7154
58 -9.69994 13.6705 117.854 285 -113.42 -176.961
59 -4.72289 14.1491 117.84 290 -112.245 84.9808
60 0.254154 14.6276 117.826 295 -104.829 93.2659
61 5.2312 15.1062 117.813 300 -108.633 -170.083
62 10.2082 15.5847 117.799 305 -88.4574 -105.744
63 15.1853 16.0633 117.785 310 -90.0794 -166.062
64 20.1623 16.5419 117.772 315 -103.968 96.176
65 25.1394 17.0204 117.758 320 -100.59 -15.9518
66 30.1122 17.5099 117.744 325 -116.056 -113.068
67 34.13 20.486 117.786 330 -108.54 -39.7448
68 38.1478 23.4622 117.827 335 -108.261 -42.1179
69 42.1656 26.4383 117.868 340 -102.492 -161.794
70 46.1834 29.4145 117.91 345 -101.569 76.2892
71 50.3139 32.2139 117.947 350 -99.3657 148.678
72 54.7062 34.603 117.975 355 -105.326 -157.955
73 59.0984 36.9922 118.002 360 -116.233 78.8637
74 63.4906 39.3814 118.03 365 -108.543 24.7477
75 67.8829 41.7706 118.058 370 -82.6877 30.6841
76 72.2751 44.1598 118.085 375 -110.106 -85.9134
77 76.6674 46.549 118.113 380 -97.889 42.8808
78 81.0596 48.9382 118.141 385 -99.7048 68.2333
79 85.4519 51.3273 118.168 390 -97.0949 53.7125
80 89.8441 53.7165 118.196 395 -99.8114 119.106
81 94.2363 56.1057 118.224 400 -89.827 141.997
82 98.6286 58.4949 118.251 405 -92.8208 -57.0678
83 103.021 60.8841 118.279 410 -101.077 149.91
84 107.413 63.2733 118.307 415 -107.385 -163.943
85 111.805 65.6625 118.334 420 -104.017 -102.443
86 116.198 68.0517 118.362 425 -104.252 179.173
87 120.59 70.4408 118.508 430 -99.5568 -171.154
88 124.982 72.83 118.657 435 -115.538 77.5366
89 129.374 75.2192 118.806 440 -99.7686 19.0767
90 133.767 77.6084 118.954 445 -104.095 -149.735
91 138.159 79.9976 119.103 450 -109.858 -133.316
92 142.551 82.3868 119.252 455 -105.592 -77.5762
93 146.943 84.776 119.401 460 -124.179 119.439
94 151.335 87.1651 119.549 465 -109.37 84.2587
95 155.728 89.5543 119.698 470 -104.55 -162.088
96 160.12 91.9435 119.847 475 -105.995 -91.8
97 164.512 94.3327 119.996 480 -106.209 -49.5122
98 168.904 96.7219 120.144 485 -105.242 -30.1711
99 173.297 99.1111 120.293 490 -110.166 80.6092
